DC_Applied_Bias	Amplitude	Phase
V	a.u.	deg
Point3	Point3	Point3
0	576.221	151.92
0.016	587.349	149.944
0.0320001	636.602	152.805
0.0480001	666.839	153.233
0.0639999	695.39	152.82
0.0799999	759.164	152.013
0.096	763.77	154.742
0.112	730.386	154.702
0.128	823.923	153.866
0.144	797.724	152.818
0.16	748.528	153.752
0.176	741.798	154.77
0.192	760.472	153.865
0.208	792.15	152.809
0.224	887.621	154.224
0.24	959.718	156.078
0.256	1046.54	155.735
0.272	1016.31	155.38
0.288	1025.67	155.181
0.304	1044.23	155.933
0.32	1176.48	155.713
0.336	1324.9	155.086
0.352	1177.41	155.65
0.368	1263.21	157.067
0.384	1353.39	156.519
0.4	1456.79	155.568
0.416	1353.05	156.24
0.432	1344.16	155.502
0.448	1497.72	155.266
0.464	1478.52	154.987
0.48	1553.57	153.919
0.496	1669.7	157.303
0.512	1652.3	156.836
0.528	1712.95	155.345
0.544	1653.65	155.794
0.56	1702.56	157.465
0.576	1691.09	154.2
0.592	1732.89	153.792
0.608	1826.33	154.25
0.624	1883.4	155.446
0.64	1973.75	157.427
0.656	2068.9	155.178
0.672	2009.98	155.553
0.688	2028.22	157.802
0.704	2235.25	157.743
0.72	2364.56	156.887
0.736	2379.9	155.77
0.752	2369.51	157.995
0.768	2376.98	156.204
0.784	2411.12	156.73
0.8	2507.05	155.512
0.816	2415.26	154.143
0.832	2472.3	157.192
0.848	2464.47	153.081
0.864	2594.05	152.624
0.88	2543.6	157.29
0.896	2651.45	156.91
0.912	2852.4	156.584
0.928	2847.02	157.078
0.944	2743.02	152.511
0.96	2824.48	158.429
0.976	2804.86	153.397
0.992	2741.14	145.516
1.008	2796.74	156.035
1.024	2890.77	157.255
1.04	2758.83	150.177
1.056	2919.63	153.589
1.072	2885.05	156.152
1.088	2889.83	156.012
1.104	3058.85	157.626
1.12	2951.02	155.592
1.136	2975.17	156.538
1.152	3050.32	157.482
1.168	3035.27	155.856
1.184	3117.74	152.564
1.2	3082.67	152.582
1.216	3101.53	156.837
1.232	2922.24	152.717
1.248	3091.92	149.937
1.264	3043.95	151.73
1.28	3075.9	152.246
1.296	3156.58	148.708
1.312	3231.67	148.055
1.328	3009.83	146.371
1.344	3213.68	146.358
1.36	3248.17	151.737
1.376	3378.46	148.185
1.392	3238.99	150.469
1.408	3463.64	151.548
1.424	3495.56	149.678
1.44	3650.37	145.75
1.456	3436.27	146.544
1.472	3294.59	147.914
1.488	3674.56	150.022
1.504	3517.25	149.061
1.52	3547.34	150.327
1.536	3538.69	150.446
1.552	3245.02	148.959
1.568	3473.35	148.509
1.584	3343.85	148.59
1.6	3370.16	150.496
1.616	3392.02	149.983
1.632	3656.67	148.178
1.648	3481.02	148.882
1.664	3554.47	149.141
1.68	3563.05	148.94
1.696	3611.26	144.289
1.712	3428.89	141.813
1.728	3516.99	141.621
1.744	3643.44	147.311
1.76	3669.9	143.841
1.776	3617.1	145.072
1.792	3586.39	147.287
1.808	3670.89	146.436
1.824	3754.96	148.263
1.84	4033.59	144.379
1.856	3856.39	143.515
1.872	3857.94	141.794
1.888	4058.97	142.522
1.904	4095.71	143.562
1.92	3870.47	142.952
1.936	3967.69	145.232
1.952	4014.25	145.352
1.968	3983.05	143.602
1.984	3902.91	145.714
2	3921.53	147.984
1.984	3909.03	147.789
1.968	3999.1	144.788
1.952	3861.13	144.879
1.936	3826.28	148.832
1.92	3852.31	145.215
1.904	3923.35	143.289
1.888	3763.34	143.892
1.872	3914.65	146.141
1.856	3878.63	146.715
1.84	3921.17	143.449
1.824	3792.2	144.925
1.808	3794.32	149.276
1.792	4016.35	147.994
1.776	3956.92	145.703
1.76	3927.93	145.506
1.744	3803.04	147.376
1.728	3710.89	147.517
1.712	3859.99	146.051
1.696	4033.87	147.702
1.68	3761.5	148.935
1.664	3819.46	149.065
1.648	3851.78	147.614
1.632	3752.31	148.093
1.616	3749.31	149.839
1.6	3841.43	149.107
1.584	3893.62	148.653
1.568	3709.41	148.499
1.552	3769.79	150.31
1.536	3636.38	154.34
1.52	3677.46	151.539
1.504	3485.12	150.588
1.488	3411.7	154.015
1.472	3569.92	153.467
1.456	3535.66	152.659
1.44	3595.11	150.603
1.424	3453.52	152.666
1.408	3299.31	152.396
1.392	3344.13	151.39
1.376	3271.5	149.443
1.36	3307.66	151.599
1.344	3307.26	151.671
1.328	3254.06	151.686
1.312	3317.59	150.284
1.296	3401.57	154.035
1.28	3236.89	153.396
1.264	3152.73	153.422
1.248	3241.38	154.135
1.232	3155.27	151.944
1.216	3196.81	153.838
1.2	3295.6	156.01
1.184	3051.95	153.15
1.168	3152.32	153.886
1.152	3149	156.02
1.136	3243.39	152.94
1.12	3171.08	152.524
1.104	3020.58	154.729
1.088	3046.11	156.279
1.072	3195.46	156.092
1.056	3094.93	153.598
1.04	2991.84	155.456
1.024	2983.78	156.483
1.008	3059.92	153.678
0.992	2944.33	155.242
0.976	2867.1	155.164
0.96	2868.99	156.501
0.944	2937.66	154.7
0.928	2875.8	153.789
0.912	2794.87	154.84
0.896	2691.53	156.585
0.88	2825.37	157.169
0.864	2903.12	155.589
0.848	2526.31	155.507
0.832	2679.21	158.196
0.816	2618.58	155.332
0.8	2664.1	153.566
0.784	2771.11	155.02
0.768	2571.13	156.177
0.752	2652.65	156.501
0.736	2543.37	153.261
0.72	2422.25	154.546
0.704	2333.15	158.189
0.688	2522.58	156.797
0.672	2488.7	153.465
0.656	2272.73	154.12
0.64	2335.14	158.604
0.624	2428.13	156.195
0.608	2411.67	153.31
0.592	2392.39	154.113
0.576	2378.55	158.655
0.56	2376.39	157.257
0.544	2388.77	156.769
0.528	2173.17	155.814
0.512	2293.78	158.444
0.496	2227.04	156.099
0.48	2201.26	154.718
0.464	2296.87	155.597
0.448	2103.36	156.005
0.432	2186.34	155.338
0.416	2140.54	153.668
0.4	2100.67	154.594
0.384	1960.37	155.921
0.368	1943.61	157.589
0.352	1913.39	155.378
0.336	1788.89	155.601
0.32	1884.34	156.921
0.304	1863.17	156.42
0.288	1837.14	154.805
0.272	1888.76	154.853
0.256	1744.82	154.926
0.24	1814.13	157.812
0.224	1728.59	156.354
0.208	1636.45	154.429
0.192	1606.84	157.053
0.176	1706.03	158.217
0.16	1676.66	154.898
0.144	1663.22	155.472
0.128	1570.75	156.153
0.112	1571.3	156.973
0.096	1571.37	155.176
0.0799999	1437.55	154.998
0.0639999	1363.1	156.027
0.0480001	1457.47	157.814
0.0320001	1368.62	154.164
0.016	1527.6	155.093
0	1453	155.139
-0.016	1376.67	157.189
-0.0319999	1462.78	154.999
-0.048	1407.46	153.727
-0.064	1280.09	154.688
-0.08	1290.08	156.792
-0.096	1343.27	155.471
-0.112	1311.04	153.281
-0.128	1222.4	154.211
-0.144	1211.36	156.697
-0.16	1156.06	155.094
-0.176	1288.63	153.786
-0.192	1141.45	152.691
-0.208	1136.9	154.571
-0.224	1157.43	153.248
-0.24	1105.05	151.803
-0.256	1015.45	153.144
-0.272	1010.41	154.948
-0.288	1013.44	152.289
-0.304	1002.94	151.023
-0.32	977.026	152.044
-0.336	961.215	151.97
-0.352	906.579	152.957
-0.368	893.328	151.133
-0.384	809.61	151.335
-0.4	866.521	153.219
-0.416	866.901	152.013
-0.432	860.265	150.497
-0.448	835.222	151.832
-0.464	856.512	152.674
-0.48	882.086	152.248
-0.496	848.057	153.012
-0.512	782.595	150.264
-0.528	763.107	151.12
-0.544	795.961	153.369
-0.56	748.396	149.823
-0.576	730.689	150.552
-0.592	739.808	151.46
-0.608	762.292	152.391
-0.624	779.771	149.853
-0.64	749.135	150.238
-0.656	675.56	151.733
-0.672	654.365	150.725
-0.688	642.308	150.467
-0.704	631.73	149.449
-0.72	543.102	150.802
-0.736	617.037	149.264
-0.752	566.553	149.463
-0.768	505.869	148.888
-0.784	567.975	147.702
-0.8	571.69	150.578
-0.816	536.998	148.578
-0.832	538.268	148.285
-0.848	468.712	147.885
-0.864	547.728	150.15
-0.88	540.656	149.86
-0.896	487.594	148.432
-0.912	453.868	149.836
-0.928	481.015	150.207
-0.944	500.485	149.798
-0.96	390.227	147.246
-0.976	299.817	146.85
-0.992	366.321	150.329
-1.008	321.865	151.104
-1.024	268.385	145.323
-1.04	283.513	147.964
-1.056	268.48	150.951
-1.072	257.75	150.103
-1.088	168.288	107.878
-1.104	54.1813	49.9042
-1.12	184.251	125.392
-1.136	69.1579	30.7108
-1.152	40.2663	18.2824
-1.168	59.4515	11.0701
-1.184	86.1441	2.06269
-1.2	365.07	-6.71687
-1.216	295.021	-6.02819
-1.232	1850.71	-8.95834
-1.248	2404.49	-11.5111
-1.264	2525.4	-15.7573
-1.28	2375.01	-16.9686
-1.296	2356.9	-15.61
-1.312	2360.45	-17.3967
-1.328	2437.02	-16.1926
-1.344	2638.69	-19.5181
-1.36	2478.67	-20.6069
-1.376	2433.38	-16.332
-1.392	2542.71	-16.0458
-1.408	2607	-19.7653
-1.424	2606.07	-18.0686
-1.44	2544.21	-14.3568
-1.456	2630.94	-16.9839
-1.472	2750.2	-19.413
-1.488	2727.89	-21.0012
-1.504	2632	-20.348
-1.52	2538.88	-18.1427
-1.536	2685.88	-20.3336
-1.552	2706.18	-21.2674
-1.568	2652.84	-20.192
-1.584	2582.46	-17.6843
-1.6	2689.73	-19.5102
-1.616	2774.92	-21.4332
-1.632	2702.28	-20.7034
-1.648	2749.75	-18.2534
-1.664	2914.3	-21.5527
-1.68	2876.88	-22.7094
-1.696	2897.43	-23.7387
-1.712	2836.8	-19.0784
-1.728	2870.03	-18.6199
-1.744	2980.9	-20.1681
-1.76	2960.71	-20.6108
-1.776	2897.68	-17.9004
-1.792	3072.77	-16.7012
-1.808	3101.89	-20.7993
-1.824	3199.71	-22.8868
-1.84	3028.6	-21.5658
-1.856	2970.81	-21.3782
-1.872	3034.57	-20.2868
-1.888	3010.66	-22.1724
-1.904	2923.34	-20.2437
-1.92	3048.33	-20.7322
-1.936	3304.21	-22.3594
-1.952	3131.54	-21.8744
-1.968	2982.61	-21.2486
-1.984	2965.6	-17.6348
-2	2984.96	-16.6266
-1.984	3026.36	-22.3373
-1.968	2917.83	-15.0684
-1.952	2912.9	-16.7205
-1.936	2896.58	-17.8179
-1.92	2848.08	-18.1376
-1.904	2722.9	-17.1517
-1.888	2717.56	-18.1468
-1.872	2816.19	-18.9549
-1.856	2736.65	-18.8744
-1.84	2636.65	-17.6928
-1.824	2635.96	-16.7461
-1.808	2738.2	-17.9149
-1.792	2737.33	-18.7307
-1.776	2608.13	-18.4104
-1.76	2627.58	-17.7274
-1.744	2712.27	-18.1535
-1.728	2694.5	-21.0277
-1.712	2583.43	-20.2342
-1.696	2586.22	-18.2993
-1.68	2662.88	-17.6028
-1.664	2609.9	-16.5794
-1.648	2511.68	-18.2626
-1.632	2546.22	-19.9988
-1.616	2602.05	-20.0136
-1.6	2542.84	-16.9664
-1.584	2443.88	-17.0287
-1.568	2491.2	-15.3935
-1.552	2541.02	-17.0981
-1.536	2501.12	-20.3224
-1.52	2480.57	-22.2014
-1.504	2401.23	-19.5202
-1.488	2455.71	-16.5663
-1.472	2412.45	-16.8452
-1.456	2432.32	-20.556
-1.44	2370.46	-15.3308
-1.424	2398.31	-16.9776
-1.408	2494.48	-25.6039
-1.392	2401.72	-23.0435
-1.376	2369.25	-20.7484
-1.36	2442.35	-17.7428
-1.344	2330.61	-18.3419
-1.328	2229.79	-15.8979
-1.312	2240.16	-16.8899
-1.296	2230.65	-14.778
-1.28	2185.3	-15.606
-1.264	2101.32	-14.29
-1.248	2152.84	-18.6021
-1.232	2243.82	-15.9223
-1.216	2198.89	-17.9315
-1.2	2251.33	-14.2236
-1.184	2154.38	-11.5371
-1.168	2211.71	-10.8629
-1.152	2212.18	-10.8742
-1.136	2210.06	-10.1555
-1.12	2141.79	-8.46078
-1.104	2179.65	-11.383
-1.088	2153.41	-10.8883
-1.072	2168.52	-8.54487
-1.056	2244.73	-6.43822
-1.04	2341.49	-9.362
-1.024	2233.11	-8.25907
-1.008	2081.45	-8.28513
-0.992	2246.61	-5.93112
-0.976	2084.37	-7.8094
-0.96	1992.44	-8.6841
-0.944	1706.69	-4.32127
-0.928	1800.42	-5.92626
-0.912	1906.68	-7.36078
-0.896	1907.04	-7.754
-0.88	1963.21	-9.14473
-0.864	1927.78	-9.54557
-0.848	1844.15	-11.2082
-0.832	1707.45	-11.0882
-0.816	1528.37	-10.4271
-0.8	1587.5	-12.1011
-0.784	1362.3	-18.0226
-0.768	1463.98	-15.2263
-0.752	1298.3	-18.3332
-0.736	1379.44	-14.3824
-0.72	1090.11	-18.1135
-0.704	1203.76	-18.2159
-0.688	1024.46	-19.004
-0.672	927.395	-16.2643
-0.656	747.088	-18.1735
-0.64	745.324	-19.4104
-0.624	621.284	-18.2392
-0.608	552.562	-15.8831
-0.592	673.911	-17.7859
-0.576	472.977	-18.4109
-0.56	490.665	-17.7031
-0.544	454.342	-15.2713
-0.528	358.548	-15.9865
-0.512	231.228	-14.0407
-0.496	168.402	-11.4569
-0.48	85.4047	-2.46401
-0.464	37.1572	21.9926
-0.448	36.361	4.20306
-0.432	55.4894	3.0337
-0.416	32.6453	7.18403
-0.4	37.8587	37.9549
-0.384	70.6366	58.5235
-0.368	85.5374	94.3227
-0.352	121.481	116.681
-0.336	86.9024	98.2986
-0.32	122.676	125.151
-0.304	141.994	131.619
-0.288	167.814	136.793
-0.272	193.786	136.187
-0.256	260.442	144.359
-0.24	298.774	145.212
-0.224	352.121	148.604
-0.208	359.079	149.03
-0.192	384.975	148.037
-0.176	413.867	148.878
-0.16	466.096	151.187
-0.144	501.603	152.206
-0.128	502.021	150.982
-0.112	492.599	151.004
-0.096	481.053	151.653
-0.08	488.617	152.414
-0.064	480.503	150.642
-0.048	452.863	150.857
-0.0319999	492.769	151.86
-0.016	512.22	152.774
0	570.325	152.931
