DC_Applied_Bias	Amplitude	Phase
V	a.u.	deg
Nov. 2022	Nov. 2022	Nov. 2022
0	389.065	12.7826
0.016	370.906	12.869
0.0320001	367.803	11.9556
0.0480001	364.884	12.6607
0.0639999	355.703	12.2534
0.0799999	362.538	12.7771
0.096	353.338	12.303
0.112	346.54	12.816
0.128	339.945	12.155
0.144	332.057	13.4723
0.16	309.63	12.8429
0.176	317.906	12.333
0.192	306.952	12.3653
0.208	314.877	14.3232
0.224	305.16	13.227
0.24	295.554	14.3506
0.256	275.861	13.2664
0.272	257.702	13.4559
0.288	271.705	13.3802
0.304	254.728	13.9935
0.32	241.076	13.6649
0.336	243.108	12.8482
0.352	236.735	14.6401
0.368	237.88	13.7117
0.384	218.613	11.3468
0.4	229.863	14.2468
0.416	221.513	13.643
0.432	215.805	13.01
0.448	212.35	12.7433
0.464	209.468	13.3499
0.48	211.149	13.4767
0.496	197.22	13.7494
0.512	203.206	10.86
0.528	175.053	13.7652
0.544	171.598	14.5355
0.56	167.164	12.4756
0.576	157.558	14.7555
0.592	161.382	13.4636
0.608	158.076	14.8904
0.624	143.556	12.9259
0.64	132.102	12.5208
0.656	126.893	14.6896
0.672	120.261	14.4713
0.688	131.696	13.8901
0.704	141.561	13.9851
0.72	101.511	17.3473
0.736	122.57	12.9453
0.752	126.449	12.759
0.768	113.98	16.2578
0.784	73.9854	15.4309
0.8	115.994	14.2481
0.816	100.162	12.7944
0.832	84.6445	15.4167
0.848	95.9131	15.274
0.864	81.9843	19.4629
0.88	68.2587	18.3293
0.896	48.6401	14.7563
0.912	36.6325	23.8464
0.928	52.1315	14.4832
0.944	47.1068	18.31
0.96	50.7645	16.1893
0.976	40.6042	16.5366
0.992	30.4993	27.86
1.008	45.0932	8.0333
1.024	36.5586	56.3899
1.04	14.4276	38.2946
1.056	17.1986	74.9883
1.072	13.1345	46.3055
1.088	48.6586	200.863
1.104	53.0367	186.445
1.12	60.8324	198.097
1.136	47.6979	190.356
1.152	76.3315	198.227
1.168	104.3	199.687
1.184	101.529	197.426
1.2	126.837	196.084
1.216	116.585	199.518
1.232	143.519	196.692
1.248	145.2	197.038
1.264	150.705	196.225
1.28	167.349	195.434
1.296	168.661	195.313
1.312	156.875	195.71
1.328	200.102	196.197
1.344	213.809	194.894
1.36	232.394	196.872
1.376	231.987	196.793
1.392	244.937	196.946
1.408	240.836	196.275
1.424	247.856	195.595
1.44	236.162	195.055
1.456	247.689	195.564
1.472	244.013	196.373
1.488	281.052	195.173
1.504	258.736	195.995
1.52	296.847	195.262
1.536	323.263	195.185
1.552	339.409	194.5
1.568	363.831	195.311
1.584	395.272	196.007
1.6	373.788	194.598
1.616	410.753	195.726
1.632	420.802	194.876
1.648	401.331	195.041
1.664	422.576	195.617
1.68	444.134	195.557
1.696	417.366	195.046
1.712	458.617	195.579
1.728	461.296	195.352
1.744	473.414	195.506
1.76	507.793	196.123
1.776	501.253	195.708
1.792	497.928	194.993
1.808	505.89	195.114
1.824	513.187	195.135
1.84	550.669	195.954
1.856	573.096	195.416
1.872	559.777	194.627
1.888	564.524	195.665
1.904	581.723	195.363
1.92	583.958	195.374
1.936	629.162	196.062
1.952	657.962	196.468
1.968	666.866	196.231
1.984	646.675	196
2	651.219	195.25
1.984	629.291	195.497
1.968	668.603	195.688
1.952	669.36	195.825
1.936	636.016	195.116
1.92	638.51	195.645
1.904	618.115	195.345
1.888	599.586	195.252
1.872	547.159	195.05
1.856	551.611	195.572
1.84	592.511	195.614
1.824	581.169	195.34
1.808	573.059	195.534
1.792	565.651	196.359
1.776	534.062	196.102
1.76	534.376	196.034
1.744	510.804	196.24
1.728	521.241	196.467
1.712	515.625	196.264
1.696	505.373	195.678
1.68	486.235	195.961
1.664	489.597	195.842
1.648	466.062	196.338
1.632	503.95	196.519
1.616	471.862	194.966
1.6	452.447	195.34
1.584	445.058	196.468
1.568	434.251	195.63
1.552	437.761	195.364
1.536	414.983	196.039
1.52	409.534	196.636
1.504	415.02	196.148
1.488	380.032	195.817
1.472	367.359	195.538
1.456	373.973	196.431
1.44	351.971	195.659
1.424	341.626	195.615
1.408	349.163	195.873
1.392	343.898	195.682
1.376	317.666	196.311
1.36	293.448	197.23
1.344	288.386	196.044
1.328	315.985	196.493
1.312	284.322	195.398
1.296	275.972	196.406
1.28	278.503	195.912
1.264	262.228	197.571
1.248	249.518	196.042
1.232	273.312	197.13
1.216	268.195	195.809
1.2	230.934	196.261
1.184	250.83	196.828
1.168	231.765	197.294
1.152	217.209	195.181
1.136	207.067	196.311
1.12	221.088	196.807
1.104	190.496	198.964
1.088	172.78	196.659
1.072	162.214	198.308
1.056	156.93	196.568
1.04	160.57	196.727
1.024	145.791	199.172
1.008	146.197	199.023
0.992	117.712	197.589
0.976	124.436	196.531
0.96	114.959	199.257
0.944	128.962	198.78
0.928	120.372	197.939
0.912	117.49	199.094
0.896	110.969	199.225
0.88	93.955	203.289
0.864	66.9471	206.121
0.848	60.1674	207.103
0.832	59.3546	179.348
0.816	60.4814	202.907
0.8	61.5344	206.981
0.784	50.9308	209.203
0.768	34.6743	108.59
0.752	32.7716	220.503
0.736	37.4453	219.328
0.72	20.6531	58.296
0.704	14.2059	26.331
0.688	19.8588	-26.7528
0.672	20.0989	22.4376
0.656	27.6545	-0.201593
0.64	20.2836	-10.8574
0.624	28.5042	-18.7584
0.608	36.3554	22.0345
0.592	38.6276	6.06838
0.576	48.8987	6.10068
0.56	46.2201	5.10395
0.544	61.2388	10.8323
0.528	63.2709	11.4909
0.512	69.8843	7.18303
0.496	76.2761	16.5753
0.48	70.3646	12.7602
0.464	94.7863	11.1822
0.448	77.3475	12.7441
0.432	76.4423	7.98961
0.416	85.8083	12.1
0.4	82.5016	11.9633
0.384	101.012	10.4112
0.368	97.4279	11.358
0.352	103.487	11.8416
0.336	102.342	14.1137
0.32	115.661	14.0694
0.304	122.108	12.8323
0.288	118.044	14.3142
0.272	123.641	12.7431
0.256	139.122	11.3974
0.24	149.486	13.6894
0.224	146.364	13.1412
0.208	138.18	13.889
0.192	169.843	14.256
0.176	159.018	13.0279
0.16	175.865	14.2346
0.144	179.135	15.165
0.128	171.931	13.7752
0.112	187.282	12.7542
0.096	185.97	12.6904
0.0799999	191.494	12.0838
0.0639999	203.649	13.1851
0.0480001	208.267	13.7353
0.0320001	204.536	12.4345
0.016	214.29	13.8378
0	221.698	12.8359
-0.016	223.73	13.2672
-0.0319999	233.206	13.0858
-0.048	244.069	13.3323
-0.064	233.798	13.5208
-0.08	238.157	13.6507
-0.096	248.003	12.5562
-0.112	257.831	11.9862
-0.128	264.371	12.144
-0.144	261.544	14.0852
-0.16	277.986	13.2869
-0.176	283.564	13.0727
-0.192	289.79	12.4266
-0.208	286.225	13.6231
-0.224	306.545	12.7348
-0.24	297.623	13.2052
-0.256	295.683	12.3111
-0.272	293.799	13.6838
-0.288	303.885	13.1152
-0.304	310.979	12.5567
-0.32	317.167	12.613
-0.336	327.956	12.4521
-0.352	348.646	12.2554
-0.368	357.513	12.8769
-0.384	363.11	12.8678
-0.4	366.602	11.9605
-0.416	369.705	12.243
-0.432	380.272	12.03
-0.448	388.123	12.7737
-0.464	393.72	12.3687
-0.48	407.908	12.6352
-0.496	408.628	12.3468
-0.512	433.881	12.4866
-0.528	440.957	12.5651
-0.544	447.145	12.2365
-0.56	453.13	12.3165
-0.576	479.898	11.9122
-0.592	483.778	12.0083
-0.608	506.925	12.2026
-0.624	532.418	11.9871
-0.64	538.329	11.862
-0.656	566.889	12.3389
-0.672	615.898	11.4436
-0.688	601.6	11.4699
-0.704	641.465	11.7751
-0.72	682.531	11.8676
-0.736	697.347	11.7195
-0.752	723.173	11.1087
-0.768	743.659	11.257
-0.784	805.711	11.4364
-0.8	843.803	11.2209
-0.816	892.997	11.8239
-0.832	998.073	11.6375
-0.848	1037.59	11.7536
-0.864	1095.04	12.4417
-0.88	1260.76	13.3684
-0.896	1359.83	13.5697
-0.912	1356.73	13.3191
-0.928	1478.67	13.4609
-0.944	1413.78	13.1121
-0.96	1571.87	13.7059
-0.976	1678.74	14.6456
-0.992	1832.6	15.6674
-1.008	1907.09	15.6031
-1.024	2222.3	17.3643
-1.04	2501.28	19.9409
-1.056	1965.17	15.5148
-1.072	2312.04	17.7146
-1.088	2309.03	17.1426
-1.104	2282.89	16.924
-1.12	2122.13	15.9666
-1.136	1975.57	14.3747
-1.152	2203.77	15.8915
-1.168	2157.34	15.2932
-1.184	2469.65	17.0957
-1.2	2438.51	17.1212
-1.216	2471.67	17.5484
-1.232	2266.8	16.2929
-1.248	2476.45	17.1129
-1.264	2641.56	21.3891
-1.28	2420.81	17.8669
-1.296	2297.68	17.7648
-1.312	2455.1	18.8537
-1.328	2568.28	20.1471
-1.344	2589.56	22.3722
-1.36	2440.04	19.9423
-1.376	2487.15	19.2393
-1.392	2559.62	23.4764
-1.408	2475.86	21.247
-1.424	2176.83	17.3615
-1.44	2416.73	21.6109
-1.456	2342.78	25.1771
-1.472	2307.55	21.4607
-1.488	1846.12	28.376
-1.504	1815.7	39.7045
-1.52	1819.76	31.7808
-1.536	2078.92	44.0179
-1.552	2072.48	44.3384
-1.568	2350	40.8427
-1.584	2175.39	33.9515
-1.6	2529.23	43.052
-1.616	2218.34	39.8031
-1.632	2100.87	35.2994
-1.648	2346.38	39.9399
-1.664	2030.78	36.5311
-1.68	2146.04	33.5698
-1.696	2383.97	48.4418
-1.712	2439.47	43.7485
-1.728	2327	48.5332
-1.744	2237.07	51.0727
-1.76	2426.94	52.4826
-1.776	2284.22	50.0982
-1.792	2347.8	53.1712
-1.808	2170.31	48.2221
-1.824	2193.7	44.7305
-1.84	2441.87	57.2038
-1.856	2559.43	50.2502
-1.872	2337.86	60.6579
-1.888	2487.5	54.7535
-1.904	2529.36	61.9598
-1.92	2419.37	52.0548
-1.936	2080.51	70.6953
-1.952	2087.11	79.9167
-1.968	1914.57	75.0076
-1.984	1945.66	81.2883
-2	2119.84	80.9413
-1.984	1873.08	80.2543
-1.968	2157.79	70.92
-1.952	2197.26	73.302
-1.936	2237.06	61.777
-1.92	2098.36	67.4109
-1.904	2342.91	62.128
-1.888	2164.92	60.8825
-1.872	2226.75	60.5658
-1.856	2182.28	63.5104
-1.84	2188.54	63.2851
-1.824	2113.67	53.8259
-1.808	2140.05	61.2653
-1.792	2288.54	63.0792
-1.776	2134.47	58.2882
-1.76	2071.22	51.5445
-1.744	2023.38	51.1963
-1.728	2108.83	52.6962
-1.712	2424.1	57.4748
-1.696	2168.15	43.7588
-1.68	2056.29	43.9911
-1.664	2260.59	48.3515
-1.648	2029.88	40.7629
-1.632	2092.24	48.5473
-1.616	2233.92	51.2341
-1.6	2334.08	56.0221
-1.584	2064.48	38.521
-1.568	2079.5	49.2478
-1.552	2093.41	49.427
-1.536	2294.36	51.9226
-1.52	2360.16	49.5188
-1.504	2302.1	49.8526
-1.488	2096.66	43.5011
-1.472	1936.83	39.1518
-1.456	2100.8	46.5501
-1.44	2226.62	55.3197
-1.424	2011.87	45.1387
-1.408	1824.94	33.8786
-1.392	2032.15	35.734
-1.376	2112.32	35.5368
-1.36	2160.5	25.2516
-1.344	2180.55	32.7208
-1.328	2116.91	25.5492
-1.312	2196.91	28.4053
-1.296	2177.76	31.5142
-1.28	2188.42	25.6002
-1.264	2124.35	25.2794
-1.248	2138.08	25.0586
-1.232	2009.17	26.875
-1.216	2126.81	23.8496
-1.2	2274.35	27.6312
-1.184	2173.75	24.3782
-1.168	2243.19	27.0187
-1.152	2285.86	23.552
-1.136	2227.97	23.8095
-1.12	1962.04	17.6886
-1.104	2088.05	17.9185
-1.088	1985.27	17.9442
-1.072	2007.51	18.5272
-1.056	1972.09	17.3556
-1.04	2030.76	17.6775
-1.024	2092.41	18.3496
-1.008	2187.81	19.277
-0.992	2186.68	18.8409
-0.976	2049.44	18.8574
-0.96	1817.58	15.6233
-0.944	2106.75	17.9738
-0.928	2101.41	16.3958
-0.912	1917.65	15.3325
-0.896	1996.33	15.6337
-0.88	1925.21	14.8459
-0.864	1874	14.7762
-0.848	1909.27	14.9787
-0.832	1806.04	14.6077
-0.816	1638.02	14.2429
-0.8	1426.17	13.3374
-0.784	1553.12	13.7351
-0.768	1368.2	13.1851
-0.752	1377.2	13.1284
-0.736	1335.12	13.5331
-0.72	1362.57	13.7742
-0.704	1219.66	13.5608
-0.688	1050.63	13.25
-0.672	1001.66	13.2407
-0.656	933.38	12.8992
-0.64	923.423	12.8349
-0.624	882.227	13.2433
-0.608	894.087	13.0249
-0.592	810.403	12.131
-0.576	811.419	12.0661
-0.56	809.369	12.3917
-0.544	746.43	12.3515
-0.528	715.377	12.1013
-0.512	673.646	12.7219
-0.496	667.734	12.7327
-0.48	642.149	12.3971
-0.464	593.971	12.4391
-0.448	592.271	12.2799
-0.432	564.894	12.1185
-0.416	545.7	12.3525
-0.4	520.096	12.3896
-0.384	526.617	12.6815
-0.368	540.527	12.3799
-0.352	511.469	12.41
-0.336	521.445	12.8888
-0.32	524.991	13.1506
-0.304	513.483	12.3942
-0.288	493.328	12.9787
-0.272	468.556	12.7678
-0.256	487.472	12.7483
-0.24	473.266	12.4162
-0.224	444.042	12.5893
-0.208	450.581	12.8259
-0.192	421.966	12.7986
-0.176	404.767	12.857
-0.16	381.879	12.1132
-0.144	399.521	12.0981
-0.128	396.196	12.1775
-0.112	394.626	12.6292
-0.096	380.623	13.1463
-0.08	377.002	12.7126
-0.064	370.112	12.3293
-0.048	386.793	12.4528
-0.0319999	372.532	12.6911
-0.016	370.943	12.0259
0	377.593	12.6628
